FileType=PCF										
NHL=14										
Date=07/13/13	13:31:05									
Facility=APL										
Serial=13058-1										
Customer=Cal Poly										
NP=6										
Mach=0.205										
Calibration=1:1										
CalPts=501										
TstPts=81										
PortNumbering=AP Standard										
Units=Torr C m/s kg/m^3 deg mm 										
Theta[deg]	Phi[deg]	P1[Torr]	P2[Torr]	P3[Torr]	P4[Torr]	P5[Torr]	P6[Torr]	Pt[Torr]	"Ps[Abs,Torr]"	Ts[C]
22.05	180	15.90926	-3.36519	19.75892	7.53563	7.1932	-1.63495	20.20209	709.00201	22.9
21.455	154.942	16.24625	-2.23118	18.4488	12.90261	2.74529	-1.56124	20.21758	709.05603	22.9
20.753	159.24	16.43766	-1.99506	18.64014	12.16587	3.82583	-1.45143	20.19126	709.04401	22.9
20.182	163.815	16.66866	-1.89442	18.94024	11.31603	4.90495	-1.39679	20.12653	709.224	22.9
19.753	168.629	16.87312	-1.81867	19.12824	10.51671	5.88549	-1.28683	20.21291	709.23999	22.9
19.53	172.36	16.94013	-1.75741	19.23433	9.80445	6.59642	-1.30283	20.24016	709.16602	22.9
19.395	176.162	16.95572	-1.64736	19.30482	9.18061	7.41254	-1.21367	20.24699	709.24799	22.9
19.355	178.719	16.97574	-1.62855	19.33942	8.66232	7.79516	-1.2938	20.19469	709.22198	22.9
19.35	180	16.96321	-1.5444	19.35159	8.45726	8.0712	-1.19562	20.23564	709.15601	22.9
19.355	-178.719	16.95494	-1.59865	19.29069	8.1935	8.27332	-1.16575	20.22388	709.03802	22.9
19.395	-176.162	16.96328	-1.54641	19.39623	7.79362	8.80701	-1.19969	20.25408	709.19202	22.9
19.53	-172.36	16.8469	-1.63143	19.28212	6.99973	9.34291	-1.34995	20.13792	709.17999	22.9
19.753	-168.629	16.70052	-1.81144	19.18706	6.16142	9.9912	-1.49421	20.09507	709.10199	22.9
20.182	-163.815	16.58766	-1.90293	19.16474	5.24836	10.94134	-1.53737	20.28576	709.18597	22.9
20.753	-159.24	16.40801	-2.08447	19.12636	4.16269	11.7682	-1.69805	20.32382	708.974	22.9
21.455	-154.942	16.05564	-2.30688	18.87153	2.97919	12.43679	-1.86651	20.26627	709.11401	22.9
21.594	-141.128	16.01402	-1.22411	17.30936	0.72554	15.00634	-1.62676	20.16918	709.07599	22.9
20.005	-146.882	16.62398	-0.75062	17.85405	2.46897	13.99034	-1.49367	20.14646	709.10999	22.9
19.079	-151.233	16.97663	-0.55027	18.12408	3.54237	13.32534	-1.42116	20.16018	709.11798	22.9
18.278	-156.005	17.30948	-0.32118	18.38662	4.7679	12.61011	-1.28361	20.27525	709.15399	22.9
17.62	-161.18	17.51165	-0.18556	18.5215	5.8197	11.75611	-1.12855	20.20468	709.09003	22.9
17.122	-166.712	17.67714	-0.06643	18.66471	6.86468	10.86282	-1.08594	20.11059	709.112	22.9
16.861	-171.049	17.77628	0.00824	18.70738	7.65985	10.15153	-1.03018	20.08212	709.12402	22.9
16.703	-175.496	17.80455	0.13637	18.68659	8.48534	9.4582	-0.87506	20.13138	709.04999	22.9
16.656	-178.496	17.90173	0.10776	18.77864	8.95117	9.05744	-0.89164	20.15001	709.01398	22.9
16.65	180	17.83669	0.11508	18.68332	9.18204	8.76178	-0.89667	20.07231	709.01398	22.9
16.656	178.496	17.89588	0.14596	18.752	9.47069	8.60888	-0.83853	20.22209	709.052	22.9
16.703	175.496	17.79288	0.04767	18.60278	9.86819	7.99625	-0.94531	20.05351	709.16803	22.9
16.861	171.049	17.7731	-0.05526	18.57872	10.61321	7.33638	-0.93531	20.16004	709.01001	22.9
17.122	166.712	17.71455	-0.07963	18.51002	11.28098	6.60829	-1.00077	20.22373	708.96002	23
17.62	161.18	17.55479	-0.12891	18.27081	12.21088	5.53986	-1.09006	20.11741	709.15802	23
18.278	156.005	17.33699	-0.30916	18.00028	12.93305	4.54887	-1.25304	20.15736	709.00598	23
19.079	151.233	17.05363	-0.48433	17.70436	13.77235	3.42012	-1.29847	20.0986	709.13202	23
20.005	146.882	16.7129	-0.79908	17.34919	14.40181	2.31495	-1.37937	20.06336	709.086	23
21.594	141.128	16.1265	-1.21273	16.89695	15.43155	0.65111	-1.64463	20.21707	709.07397	23
21.594	130.924	16.14756	-0.01566	15.33414	16.95648	-0.61591	-1.59215	20.09951	709.052	23
19.63	135.858	16.90111	0.58368	16.00043	16.15254	1.15678	-1.32228	20.17484	709.07001	23
17.851	141.854	17.4781	0.84397	16.57773	15.16374	2.75494	-1.11677	20.11132	709.04401	23
16.797	146.536	17.89217	1.07963	16.94585	14.44238	3.86354	-1.01667	20.16413	709.03802	23
15.873	151.813	18.12451	1.33345	17.28307	13.73332	5.02763	-0.86484	20.16192	709.10199	23
15.104	157.691	18.33634	1.4658	17.54218	12.88372	6.1276	-0.75598	20.16727	708.99402	23
14.515	164.128	18.41998	1.52671	17.67003	11.95533	7.10374	-0.71257	20.06255	709.13202	23
14.204	169.262	18.54056	1.56675	17.79327	11.26577	7.86661	-0.66687	20.10431	709	23
14.014	174.582	18.59935	1.81748	17.86434	10.56793	8.69709	-0.55535	20.13778	709.01398	23
13.957	178.189	18.60121	1.84492	17.90106	10.09364	9.14899	-0.51967	20.15378	709.04797	23
13.95	180	18.64702	1.85297	17.95503	9.84117	9.4164	-0.53612	20.10349	709.138	23
13.957	-178.189	18.63535	1.85997	17.96972	9.59969	9.76004	-0.54523	20.22496	709.06799	23
14.014	-174.582	18.57845	1.84168	17.91001	9.05653	10.17887	-0.57401	20.14968	709.08197	23
14.204	-169.262	18.47326	1.69889	17.82953	8.18789	10.81491	-0.72134	20.05946	709.14398	23
14.515	-164.128	18.3698	1.64107	17.7479	7.38717	11.49565	-0.76147	19.99381	709.24597	23
15.104	-157.691	18.31111	1.592	17.77116	6.37131	12.56231	-0.72966	20.19626	709.07599	23
15.873	-151.813	18.02827	1.45491	17.51615	5.29664	13.32133	-0.87615	20.14237	709.11603	23
16.797	-146.536	17.78365	1.25643	17.33085	4.16851	14.15076	-1.07002	20.13107	709.06	23
17.851	-141.854	17.33254	0.99297	16.90774	2.97701	14.71355	-1.20128	19.96221	709.11798	23
19.63	-135.858	16.75002	0.6514	16.39941	1.30138	15.79784	-1.3427	20.14685	709.05798	23
21.594	-130.924	15.87332	0.0848	15.63065	-0.52062	16.41932	-1.75407	19.96724	709.04797	23
20.005	-124.769	16.55376	1.80646	14.60042	-0.05066	17.21136	-1.46398	20.07301	709.00598	23
17.851	-129.526	17.40474	2.39442	15.37782	1.68113	16.48791	-1.18266	20.14715	708.96802	23.1
15.858	-135.556	18.03337	2.83576	15.93726	3.42686	15.42971	-0.84011	20.08342	709.02802	23
14.653	-140.463	18.34864	3.06213	16.23872	4.57469	14.71755	-0.71321	20.10088	709.12799	23.1
13.577	-146.208	18.60676	3.19386	16.48513	5.63357	13.93193	-0.69586	20.08515	709.13202	23.1
12.663	-152.869	18.89245	3.32456	16.75476	6.79003	13.11596	-0.4988	20.1054	709.02002	23.1
11.948	-160.452	19.07475	3.4355	16.89885	7.91288	12.23246	-0.34464	20.0967	709.03601	23.1
11.565	-166.677	19.05199	3.52353	16.88655	8.72398	11.45914	-0.34802	20.06713	709.04797	23.1
11.33	-173.245	19.11693	3.52858	16.8884	9.46278	10.72295	-0.33886	20.04419	708.96399	23.1
11.259	-177.739	19.16397	3.60483	16.95526	10.06447	10.28684	-0.23766	20.11168	709.12	23.1
11.25	180	19.19816	3.61612	16.95477	10.35986	10.05702	-0.24115	20.16108	709.07001	23.1
11.259	177.739	19.18678	3.56556	16.91016	10.63423	9.73297	-0.24696	20.12487	708.87	23.1
11.33	173.245	19.17681	3.5756	16.92677	11.11786	9.2235	-0.2415	20.13061	708.94397	23.1
11.565	166.677	19.09193	3.49464	16.81645	11.84625	8.43172	-0.29551	20.1328	709.01001	23.1
11.948	160.452	18.99409	3.26553	16.68367	12.53279	7.54466	-0.40268	20.04737	709	23.1
12.663	152.869	18.8557	3.16155	16.51983	13.44328	6.47978	-0.51481	20.00135	709.034	23.1
13.577	146.208	18.72755	3.05907	16.34722	14.40707	5.46157	-0.511	20.18361	709.06201	23.1
14.653	140.463	18.46422	2.85866	16.04109	15.16226	4.34123	-0.64098	20.19123	709.07397	23.1
15.858	135.556	18.18624	2.85092	15.67252	15.91687	3.36815	-0.72306	20.19471	709.086	23.1
17.851	129.526	17.44217	2.27567	14.90336	16.68591	1.51722	-1.12314	20.01714	709.08398	23.1
20.005	124.769	16.70763	1.78267	14.23556	17.56037	-0.11837	-1.32796	20.11465	709.17999	23.1
21.455	116.672	16.2229	2.29253	12.78703	18.66714	-1.54181	-1.35445	20.22961	709.14398	23.1
19.079	120.153	17.02851	2.8923	13.46272	17.86608	0.10689	-1.18635	20.04176	709.19397	23.1
16.797	124.622	17.75763	3.4581	14.17377	17.01948	1.74222	-0.89126	19.9779	709.13202	23.1
14.653	130.47	18.42745	3.90601	14.86446	16.07946	3.46047	-0.65355	20.03688	708.96002	23.1
13.334	135.391	18.70441	4.14652	15.13684	15.41706	4.54024	-0.54137	19.98085	709.15399	23.1
12.136	141.348	18.96697	4.25091	15.52188	14.64138	5.63621	-0.38742	20.03156	709.09003	23.1
11.1	148.518	19.21237	4.42277	15.80415	13.81316	6.76939	-0.25473	20.12299	709.04797	23.1
10.274	157.007	19.2815	4.56536	15.94064	12.85018	7.85297	-0.23671	20.02918	709.10999	23.1
9.825	164.198	19.33398	4.65109	16.00659	12.13119	8.5833	-0.14237	19.96663	709.18597	23.2
9.545	171.944	19.37897	4.72746	16.10168	11.34828	9.43305	-0.19032	20.03225	708.96802	23.1
9.461	177.298	19.41196	4.74388	16.14745	10.91122	10.00576	-0.0692	20.03955	709.034	23.2
9.45	180	19.4406	4.68982	16.10819	10.46787	10.17027	-0.1918	20.03318	708.92401	23.2
9.461	-177.298	19.37409	4.68503	16.10609	10.22107	10.44888	-0.18056	19.98753	708.95203	23.2
9.545	-171.944	19.36729	4.73036	16.16267	9.78592	11.07276	-0.15625	20.02547	708.91803	23.2
9.825	-164.198	19.41889	4.70839	16.19847	9.00312	11.84474	-0.16325	20.17161	708.90399	23.2
10.274	-157.007	19.27464	4.64019	16.12158	8.14861	12.55161	-0.24518	20.0662	708.95801	23.2
11.1	-148.518	19.19456	4.55019	15.98815	7.07607	13.44913	-0.30518	20.10673	708.93597	23.2
12.136	-141.348	18.99089	4.40102	15.78849	5.9464	14.32081	-0.42945	20.11943	709.04999	23.2
13.334	-135.391	18.70053	4.21476	15.47447	4.77453	15.03093	-0.59122	20.09332	708.90802	23.2
14.653	-130.47	18.427	4.01425	15.2202	3.75186	15.85329	-0.66871	20.14843	709.026	23.2
16.797	-124.622	17.80644	3.61805	14.66124	2.01175	16.8745	-0.9659	20.15334	708.95801	23.2
19.079	-120.153	16.94063	3.02124	13.91576	0.25827	17.63619	-1.32271	20.09236	708.94	23.2
21.455	-116.672	16.00855	2.27491	13.01384	-1.57782	18.22026	-1.69259	20.06415	709.09802	23.2
20.753	-112.067	16.20417	3.38965	12.17566	-1.3855	18.43508	-1.59268	20.01121	709.01398	23.2
18.278	-115.116	17.21523	4.13173	13.05278	0.3503	17.87102	-1.18351	20.05034	709.09003	23.2
15.873	-119.125	18.04208	4.72433	13.77277	2.12501	17.08262	-0.85375	20.07715	708.91602	23.2
13.577	-124.547	18.66527	5.16489	14.42987	3.87309	16.10671	-0.562	20.08077	708.97601	23.2
12.136	-129.286	18.9334	5.35299	14.66208	4.98052	15.33357	-0.44607	20.01785	708.966	23.2
10.803	-135.256	19.20796	5.56797	14.97246	6.16783	14.54948	-0.29471	20.05493	708.896	23.3
9.62	-142.807	19.29787	5.63303	15.05228	7.17406	13.58889	-0.30284	19.87567	708.92999	23.3
8.65	-152.264	19.50186	5.82044	15.24281	8.36199	12.76605	-0.10118	19.97033	708.94	23.3
8.11	-160.674	19.57828	5.85411	15.35604	9.17952	12.06543	0.01983	20.03614	708.84003	23.3
7.768	-170.051	19.71264	5.90933	15.47901	10.04047	11.39032	0.05153	20.089	708.84998	23.3
7.663	-176.654	19.59945	5.89784	15.38094	10.54889	10.75629	0.01051	20.05016	708.92603	23.3
7.65	180	19.63735	5.90917	15.40984	10.81801	10.57906	0.01359	20.0316	708.88202	23.3
7.663	176.654	19.62902	5.91476	15.35986	11.07352	10.26506	0.011	20.06755	708.896	23.3
7.768	170.051	19.63904	5.91121	15.34065	11.64184	9.77428	0.07225	20.06301	708.93799	23.3
8.11	160.674	19.59215	5.82974	15.21929	12.37772	8.82688	-0.01854	19.95157	708.99402	23.3
8.65	152.264	19.52171	5.81506	15.11672	13.07072	8.05608	-0.08486	19.98829	708.79999	23.3
9.62	142.807	19.42007	5.767	14.9839	14.08017	7.09991	-0.0685	20.0952	708.93201	23.3
10.803	135.256	19.19223	5.53043	14.71626	14.84478	5.9143	-0.28925	20.03012	708.88397	23.3
12.136	129.286	18.98884	5.37104	14.46324	15.72217	4.85584	-0.31493	20.08301	708.83398	23.3
13.577	124.547	18.635	5.0894	14.01554	16.42463	3.68653	-0.51118	20.04563	708.94	23.3
15.873	119.125	18.04765	4.58836	13.35199	17.34185	1.94012	-0.7931	19.98342	708.88397	23.3
18.278	115.116	17.18093	3.97111	12.59126	18.0054	0.21831	-1.23417	19.92617	708.91602	23.3
20.753	112.067	16.38186	3.31761	11.90111	18.70605	-1.43619	-1.49469	20.04841	708.92603	23.3
20.182	107.183	16.52445	4.40805	10.98374	18.81736	-1.30266	-1.40674	19.90606	708.83398	23.3
17.62	109.676	17.49899	5.19543	11.87247	18.32955	0.44193	-1.07089	20.04562	708.89398	23.3
15.104	113.026	18.30448	5.76342	12.60632	17.6133	2.15215	-0.73531	20.08249	708.828	23.3
12.663	117.708	18.79448	6.19158	13.15644	16.56527	3.78803	-0.53147	19.97726	708.90399	23.3
11.1	121.966	19.11185	6.38988	13.5282	15.80121	4.9247	-0.31992	19.95599	709.01001	23.4
9.62	127.584	19.36268	6.6864	13.83619	15.06412	6.14392	-0.11399	20.02383	708.91199	23.4
8.266	135.15	19.49386	6.86248	14.02801	14.12009	7.20979	-0.08013	19.96899	708.94202	23.4
7.111	145.42	19.64116	7.00543	14.30454	13.34195	8.33144	0.02277	19.96287	708.87201	23.4
6.441	155.309	19.75382	7.10232	14.38928	12.64511	9.11578	0.18048	20.07272	708.98602	23.4
6.003	167.05	19.76389	7.05245	14.44105	11.79584	9.92186	0.14306	19.99586	708.81598	23.4
5.867	175.617	19.72946	7.05989	14.44043	11.30155	10.47035	0.16864	20.00348	708.83398	23.4
5.85	180	19.73337	7.04749	14.44342	11.02968	10.77032	0.17658	20.00547	708.87598	23.4
5.867	-175.617	19.73584	7.092	14.50321	10.80333	11.05175	0.13123	20.01951	708.84003	23.4
6.003	-167.05	19.69814	7.04492	14.42703	10.16654	11.48613	0.07344	19.9904	708.948	23.4
6.441	-155.309	19.78959	7.09367	14.51874	9.44768	12.36959	0.1747	20.05012	708.88	23.4
7.111	-145.42	19.62591	6.98269	14.34422	8.51254	12.98612	-0.05002	19.96959	708.76599	23.4
8.266	-135.15	19.55373	6.90233	14.2428	7.50872	13.89989	-0.02877	19.98157	708.92798	23.4
9.62	-127.584	19.36206	6.75979	14.06213	6.38861	14.79783	-0.17248	20.00731	708.95203	23.4
11.1	-121.966	19.09801	6.50532	13.76534	5.17256	15.58	-0.35442	19.96656	709.02802	23.4
12.663	-117.708	18.76874	6.24367	13.44522	3.9808	16.30313	-0.49612	20.00973	709.06201	23.4
15.104	-113.026	18.1563	5.80808	12.85657	2.28736	17.26815	-0.78449	19.97428	708.84601	23.4
17.62	-109.676	17.38913	5.20585	12.17906	0.53795	18.07781	-1.19816	19.97878	708.95801	23.4
20.182	-107.183	16.52607	4.56367	11.31852	-1.33259	18.74837	-1.58847	20.10066	708.84601	23.4
19.753	-102.062	16.64904	5.65281	10.40633	-1.13051	18.91552	-1.42956	20.03008	708.91998	23.4
17.122	-103.88	17.54642	6.23927	11.16713	0.58952	18.288	-1.0459	20.03253	708.79999	23.4
14.515	-106.368	18.3641	6.9011	11.98784	2.30735	17.45358	-0.79781	19.99324	708.776	23.4
11.948	-109.947	18.98622	7.37794	12.55811	4.08444	16.49079	-0.39658	20.0546	708.84802	23.4
10.274	-113.328	19.2684	7.6284	12.89245	5.23712	15.78894	-0.26517	20.07273	708.82397	23.5
8.65	-118.007	19.47932	7.8149	13.08212	6.44185	14.8905	-0.09179	19.96506	708.89398	23.5
7.111	-124.787	19.63117	7.94459	13.27114	7.60386	14.07925	0.09824	19.9728	708.776	23.5
5.725	-135.072	19.67453	8.13907	13.45219	8.706	13.14353	0.1513	19.93063	708.90802	23.5
4.866	-146.364	19.73404	8.19076	13.45072	9.46238	12.44124	0.24453	19.97077	708.92401	23.5
4.269	-161.595	19.70449	8.17484	13.52797	10.32181	11.72432	0.19698	19.92643	708.81598	23.5
4.075	-173.67	19.80635	8.21406	13.52185	10.90772	11.14664	0.27256	19.97445	708.76398	23.5
4.05	180	19.77959	8.23096	13.52235	11.13061	10.88944	0.23028	20.01429	708.77197	23.5
4.075	173.67	19.76518	8.17923	13.53712	11.40091	10.65159	0.26209	19.99614	708.888	23.5
4.269	161.595	19.74141	8.20237	13.45337	11.9246	10.06342	0.19369	19.91833	708.90997	23.5
4.866	146.364	19.7608	8.18275	13.43958	12.66797	9.26993	0.20911	19.95909	708.76398	23.5
5.725	135.072	19.7667	8.07251	13.35992	13.46122	8.56121	0.15727	20.03067	708.76599	23.5
7.111	124.787	19.66268	7.98181	13.16984	14.30701	7.37483	0.02142	19.99351	708.81	23.5
8.65	118.007	19.50093	7.78017	12.95691	15.23545	6.25633	-0.05328	20.02491	708.97198	23.5
10.274	113.328	19.30962	7.53648	12.65341	16.02526	5.10591	-0.20072	20.00693	708.84601	23.5
11.948	109.947	18.97426	7.27975	12.25769	16.73044	3.92306	-0.3858	20.00269	708.84802	23.5
14.515	106.368	18.46292	6.85945	11.69381	17.72968	2.17959	-0.75249	20.06545	708.83002	23.5
17.122	103.88	17.62043	6.2371	10.92891	18.4674	0.59465	-1.06121	19.96578	708.75598	23.5
19.753	102.062	16.7436	5.50896	10.14555	19.06803	-1.1529	-1.3728	19.97645	708.92603	23.5
19.53	98.1	16.83245	6.29566	9.41929	19.04223	-1.08793	-1.35755	19.99302	708.87201	23.5
16.861	99.346	17.67701	7.05041	10.18871	18.4417	0.51262	-1.09063	19.8953	708.854	23.5
14.204	101.068	18.47848	7.62057	10.95386	17.73752	2.27182	-0.61674	20.01077	708.86798	23.5
11.565	103.589	19.0842	8.11767	11.53996	16.77222	3.90436	-0.34962	20.00837	708.84601	23.5
9.825	106.025	19.28786	8.3594	11.90823	16.11641	5.11217	-0.15766	19.93802	708.974	23.5
8.11	109.507	19.56996	8.54615	12.21122	15.29012	6.27337	0.01133	20.0176	708.82202	23.5
6.441	114.829	19.66236	8.73746	12.39367	14.39222	7.38338	0.07378	19.95448	708.76202	23.5
4.866	123.732	19.76183	8.90608	12.63158	13.5432	8.57027	0.18088	20.00105	708.854	23.5
3.818	135.032	19.81445	9.00547	12.73304	12.81083	9.42215	0.28675	20.02193	708.88599	23.5
3.018	153.454	19.80208	9.0848	12.75803	12.01201	10.177	0.27075	19.99011	708.91602	23.5
2.737	170.545	19.82452	9.0586	12.76075	11.4866	10.71477	0.32793	20.04047	708.88397	23.5
2.7	180	19.76762	9.02659	12.75282	11.17992	10.95068	0.26065	19.95345	708.88397	23.5
2.737	-170.545	19.78408	9.04683	12.79177	10.93704	11.25575	0.29447	19.96439	708.92603	23.6
3.018	-153.454	19.75434	9.04516	12.7204	10.35033	11.79904	0.22801	20.00624	708.92603	23.5
3.818	-135.032	19.79772	9.04484	12.72723	9.55032	12.50631	0.24018	19.95358	708.98199	23.5
4.866	-123.732	19.77096	8.89804	12.70687	8.83298	13.22768	0.19563	19.99035	708.896	23.6
6.441	-114.829	19.66969	8.73079	12.5271	7.63702	14.10397	0.06966	19.93905	708.90802	23.6
8.11	-109.507	19.54167	8.63441	12.36809	6.47117	15.07261	-0.08804	20.01266	708.84198	23.6
9.825	-106.025	19.30839	8.39607	12.12816	5.26984	15.86885	-0.25837	19.99087	709.01398	23.6
11.565	-103.589	18.9955	8.15833	11.79037	4.0999	16.556	-0.42683	19.95822	708.94	23.6
14.204	-101.068	18.37173	7.66638	11.15066	2.36591	17.47073	-0.76462	19.89132	708.862	23.6
16.861	-99.346	17.68692	7.12247	10.50015	0.67687	18.32609	-1.10391	19.97047	708.90198	23.6
19.53	-98.1	16.71422	6.43058	9.65213	-1.14956	18.94697	-1.49267	19.97562	708.79999	23.6
19.395	-94.068	16.73656	7.12363	8.85286	-1.13149	18.98742	-1.55623	19.88225	708.90997	23.6
16.703	-94.702	17.69636	7.89645	9.71702	0.65659	18.33934	-1.14516	19.95924	708.91602	23.6
14.014	-95.583	18.50414	8.46604	10.46348	2.43104	17.58099	-0.71484	19.95974	708.77399	23.6
11.33	-96.888	19.11289	9.0266	11.07616	4.23012	16.7004	-0.29408	20.07744	708.84601	23.6
9.545	-98.168	19.33397	9.1901	11.30871	5.25937	15.88585	-0.25563	19.91217	708.992	23.6
7.768	-100.039	19.58627	9.48014	11.65611	6.55784	15.17865	0.03926	19.99929	708.896	23.6
6.003	-103.019	19.69472	9.58966	11.85516	7.66035	14.30778	0.10585	20.01227	709.08197	23.6
4.269	-108.452	19.82871	9.72939	11.98845	8.85046	13.3905	0.23769	20.04105	708.83002	23.6
3.018	-116.578	19.78828	9.79773	11.99583	9.69655	12.58168	0.29761	19.98464	708.99597	23.6
1.909	-135.008	19.82449	9.87234	12.01725	10.50879	11.82174	0.30108	19.98011	708.79797	23.6
1.423	-161.568	19.79441	9.87716	11.97804	10.93214	11.27026	0.30087	20.01101	708.94397	23.6
1.35	180	19.80721	9.89148	12.03219	11.25061	11.03872	0.2957	19.97069	708.83801	23.6
1.423	161.568	19.71142	9.86328	12.00567	11.5325	10.77512	0.28098	19.85661	708.854	23.6
1.909	135.008	19.70223	9.84886	11.92723	12.04211	10.24868	0.33781	19.94597	708.90002	23.6
3.018	116.578	19.78581	9.81197	11.90134	12.77396	9.39746	0.24056	19.98488	708.95203	23.6
4.269	108.452	19.76793	9.71889	11.82153	13.52468	8.54299	0.22543	19.983	708.854	23.6
6.003	103.019	19.63425	9.57981	11.65201	14.43738	7.47121	0.12794	19.98475	708.758	23.6
7.768	100.039	19.49493	9.34775	11.34789	15.21922	6.2244	-0.01203	19.87109	708.81	23.6
9.545	98.168	19.39114	9.18556	11.13646	16.11942	5.155	-0.15375	20.01256	708.95001	23.6
11.33	96.888	19.10266	8.94102	10.84848	16.84331	4.08246	-0.31295	20.00525	708.91803	23.7
14.014	95.583	18.51087	8.40267	10.21381	17.76848	2.3044	-0.70893	19.96259	708.78601	23.6
16.703	94.702	17.81028	7.87314	9.54291	18.54484	0.64837	-1.03479	19.99924	708.84198	23.7
19.395	94.068	16.88202	7.05554	8.73769	19.08999	-1.00906	-1.37386	19.99041	708.84802	23.7
19.355	91.358	16.89495	7.57329	8.29907	19.13167	-0.99019	-1.37889	19.97838	708.84601	23.7
16.656	91.57	17.76159	8.32688	9.01386	18.51323	0.63408	-1.07121	19.92768	708.86603	23.7
13.957	91.866	18.46197	8.95035	9.65643	17.71559	2.27819	-0.71983	19.92988	708.86603	23.7
11.259	92.305	19.02861	9.42117	10.24196	16.78667	3.97818	-0.39323	19.87606	708.86603	23.7
9.461	92.739	19.32866	9.71109	10.59827	16.09856	5.16562	-0.17696	19.93642	708.76801	23.7
7.663	93.377	19.56549	9.97495	10.90689	15.32308	6.30022	-0.02297	19.95313	708.828	23.7
5.867	94.406	19.68866	10.11237	11.13264	14.48697	7.47994	0.15571	19.96691	708.97198	23.7
4.075	96.346	19.73894	10.27022	11.32644	13.57196	8.58186	0.29217	20.00479	708.80402	23.7
2.737	99.466	19.67212	10.28235	11.305	12.75199	9.34506	0.19629	19.86875	708.92401	23.7
1.423	108.437	19.72849	10.35999	11.39061	12.0169	10.23094	0.27051	19.96029	708.88397	23.7
0.636	135.001	19.75222	10.41572	11.46903	11.52549	10.81842	0.27437	19.98605	708.98798	23.7
0.45	180	19.80012	10.4116	11.46683	11.21505	11.04236	0.23648	19.92647	709.03802	23.7
0.636	-135.001	19.75645	10.3821	11.4558	10.9887	11.28118	0.32003	19.89901	708.95801	23.7
1.423	-108.437	19.77462	10.40388	11.46277	10.46823	11.80546	0.30385	19.98762	708.92401	23.7
2.737	-99.466	19.7313	10.33036	11.37459	9.6258	12.53796	0.21715	19.89411	708.96002	23.7
4.075	-96.346	19.77421	10.31304	11.43416	8.82992	13.38984	0.26458	20.02256	708.896	23.7
5.867	-94.406	19.70449	10.1384	11.28235	7.67606	14.27613	0.08461	19.98288	708.93402	23.7
7.663	-93.377	19.56059	9.99057	11.09787	6.54657	15.14598	-0.01268	20.01251	708.93597	23.7
9.461	-92.739	19.36992	9.76984	10.83152	5.36996	15.91637	-0.21972	19.97747	709.07599	23.8
11.259	-92.305	19.06447	9.51261	10.52052	4.15097	16.68939	-0.4129	19.94794	709.03003	23.8
13.957	-91.866	18.42653	8.92079	9.89613	2.36192	17.56637	-0.80365	19.90659	709.00201	23.8
16.656	-91.57	17.71038	8.39927	9.26083	0.66575	18.38911	-1.16538	19.97517	708.93597	23.8
19.355	-91.358	16.74345	7.65689	8.37866	-1.04526	19.05369	-1.52768	19.96013	709.00598	23.8
22.05	-90	15.69024	6.95502	7.27637	-2.83585	19.48256	-1.86167	20.01913	708.91602	23.8
19.35	-90	16.75395	7.88552	8.12714	-1.07394	19.04222	-1.51892	19.95249	708.81799	23.8
16.65	-90	17.72513	8.64197	8.99179	0.69378	18.43905	-1.12356	19.97416	708.97998	23.8
13.95	-90	18.44592	9.22345	9.63786	2.39298	17.60845	-0.80208	19.97184	708.91803	23.8
11.25	-90	19.02495	9.73708	10.22036	4.14471	16.65621	-0.41867	19.90755	708.97998	23.8
9.45	-90	19.32037	10.00443	10.5203	5.2551	15.85329	-0.29529	19.90796	709.05402	23.8
7.65	-90	19.48722	10.20007	10.76055	6.44821	15.09499	-0.10918	19.88588	708.93402	23.8
5.85	-90	19.697	10.39733	10.97819	7.6399	14.24992	0.06927	19.95649	708.91602	23.8
4.05	-90	19.75635	10.50921	11.14915	8.76702	13.37946	0.18366	19.96638	708.896	23.8
2.7	-90	19.69877	10.54125	11.15985	9.60928	12.58569	0.25656	19.89841	708.99799	23.8
1.35	-90	19.70108	10.61965	11.20095	10.41599	11.83747	0.21272	19.9114	708.94	23.8
0.45	-90	19.71721	10.62532	11.13851	10.94608	11.24675	0.25172	19.8504	708.966	23.8
0	0	19.71759	10.65104	11.21879	11.26708	11.05355	0.30255	19.91991	708.77802	23.8
0.45	90	19.72178	10.64734	11.16126	11.51497	10.75532	0.29162	19.94452	708.92798	23.8
1.35	90	19.78589	10.69786	11.20677	12.04934	10.15734	0.50513	19.95131	708.96002	23.8
2.7	90	19.72481	10.66646	11.09849	12.82099	9.31614	0.45381	19.97212	708.974	23.8
4.05	90	19.66619	10.54811	11.02691	13.57775	8.46744	0.45359	19.82441	708.86603	23.8
5.85	90	19.62991	10.40564	10.84144	14.45689	7.37699	0.32238	19.88211	708.96002	23.9
7.65	90	19.51023	10.2342	10.59436	15.2861	6.18705	0.21184	19.94084	708.84198	23.8
9.45	90	19.36856	10.04043	10.37029	16.16201	5.06954	0.08347	19.92025	708.92401	23.9
11.25	90	19.05263	9.7493	10.00748	16.83021	3.88433	-0.16969	19.87426	708.82001	23.9
13.95	90	18.4568	9.23722	9.43306	17.70032	2.17492	-0.50661	19.85586	708.94397	23.9
16.65	90	17.73165	8.61207	8.80531	18.51735	0.54879	-0.86698	19.82736	708.888	23.9
19.35	90	16.83512	7.7881	7.97162	19.03399	-1.14956	-1.16918	19.87971	708.87	23.9
22.05	90	15.74682	6.88551	7.11982	19.49445	-2.93035	-1.60254	19.85013	708.95001	23.9
19.355	88.642	16.83854	8.03802	7.74354	19.03917	-1.20391	-1.21733	19.69004	708.89001	23.9
16.656	88.43	17.74046	8.88388	8.52321	18.48971	0.56346	-0.8415	19.90734	708.92401	23.9
13.957	88.134	18.52725	9.51718	9.21791	17.79195	2.23542	-0.43409	19.94762	709.01398	23.9
11.259	87.695	18.96603	9.93768	9.70804	16.69805	3.84862	-0.19129	19.79034	708.97198	23.9
9.461	87.261	19.31275	10.28203	10.0975	16.10958	5.04505	0.03853	19.92395	709.09198	23.9
7.663	86.623	19.56619	10.52764	10.38404	15.38826	6.23025	0.23175	19.92234	708.99799	23.9
5.867	85.594	19.62544	10.67704	10.60008	14.44816	7.3138	0.31731	19.85326	709.00201	23.9
4.075	83.654	19.65999	10.80873	10.72781	13.50203	8.39624	0.39574	19.79331	709.09399	23.9
2.737	80.534	19.72589	10.89052	10.87073	12.85377	9.31163	0.48218	19.88335	709.07599	23.9
1.423	71.563	19.74071	10.91563	10.89309	12.01654	10.13601	0.49006	19.82952	708.95801	23.9
0.636	44.999	19.65773	10.92653	10.86721	11.46794	10.57102	0.49361	19.78455	708.966	23.9
0.45	0	19.69144	10.89877	10.88146	11.2347	10.85135	0.438	19.7643	708.88	23.9
0.636	-44.999	19.73754	10.9374	10.9853	11.00528	11.23351	0.51643	19.88826	708.93402	23.9
1.423	-71.563	19.7237	10.96017	10.91824	10.47488	11.73585	0.46104	19.94561	709.15997	23.9
2.737	-80.534	19.65959	10.83838	10.84098	9.54532	12.41854	0.33888	19.80157	709.026	23.9
4.075	-83.654	19.61094	10.74199	10.78716	8.73347	13.15744	0.31323	19.75603	708.95203	23.9
5.867	-85.594	19.6189	10.70453	10.71548	7.68252	14.13798	0.25834	19.89138	708.87598	23.9
7.663	-86.623	19.50072	10.49872	10.52055	6.46915	14.97166	0.06345	19.84792	708.94397	23.9
9.461	-87.261	19.31505	10.31175	10.29298	5.37801	15.81841	0.01899	19.93229	708.89001	23.9
11.259	-87.695	18.97552	10.02206	9.94752	4.19767	16.56807	-0.2699	19.8583	709.02802	23.9
13.957	-88.134	18.32588	9.40573	9.29594	2.36888	17.40298	-0.61643	19.72297	708.98199	23.9
16.656	-88.43	17.63559	8.93211	8.71555	0.73204	18.21066	-0.96796	19.85373	708.97198	23.9
19.355	-88.642	16.79678	8.14205	7.9396	-1.05426	18.94934	-1.32358	19.8602	708.96002	23.9
19.395	-85.932	16.70568	8.60747	7.40234	-1.06219	18.89163	-1.4055	19.84817	708.88397	23.9
16.703	-85.298	17.60014	9.37124	8.15311	0.65006	18.17662	-1.00089	19.79727	708.97998	23.9
14.014	-84.417	18.39662	10.02709	8.90857	2.4501	17.52729	-0.53035	19.85966	709.02802	24
11.33	-83.112	18.99715	10.52942	9.41197	4.12388	16.46163	-0.30279	19.80837	708.90399	24
9.545	-81.832	19.28053	10.77655	9.65905	5.28589	15.72782	-0.06215	19.78758	708.966	24
7.768	-79.961	19.3817	10.97461	9.906	6.44475	14.90549	0.0571	19.6746	708.91602	24
6.003	-76.981	19.61193	11.24911	10.1762	7.66512	14.12529	0.26438	19.89631	708.84802	24
4.269	-71.548	19.57203	11.27569	10.19742	8.69719	13.07658	0.27134	19.78981	709.01398	24
3.018	-63.422	19.68366	11.43053	10.33249	9.64983	12.48182	0.41211	19.88999	709.05603	24
1.909	-44.992	19.72146	11.46182	10.41111	10.44846	11.73473	0.4844	19.89248	708.87201	24
1.423	-18.432	19.76619	11.49117	10.43577	11.0209	11.20348	0.46996	19.93483	708.95001	24
1.35	0	19.69556	11.45501	10.39672	11.19415	10.90323	0.43725	19.82623	708.87201	24
1.423	18.432	19.7156	11.4901	10.43771	11.50232	10.70485	0.46013	19.90641	708.99597	24
1.909	44.992	19.71346	11.43998	10.40049	12.0214	10.1464	0.50399	19.8489	708.86401	24
3.018	63.422	19.71535	11.40553	10.30618	12.77732	9.30799	0.45938	19.85644	708.77002	24
4.269	71.548	19.68855	11.38347	10.22723	13.53172	8.51712	0.47083	19.86859	708.81201	24
6.003	76.981	19.63785	11.26304	10.07338	14.42697	7.44264	0.29053	19.95465	708.84003	24
7.768	79.961	19.4732	10.99321	9.77508	15.21875	6.14889	0.19415	19.76908	708.854	24
9.545	81.832	19.27936	10.801	9.58633	16.09615	4.95217	-0.04448	19.82674	708.966	24
11.33	83.112	18.94183	10.44094	9.18633	16.74185	3.7049	-0.20966	19.77591	708.98798	24
14.014	84.417	18.46615	10.0121	8.71478	17.82492	2.04667	-0.45963	19.93914	709.02002	24
16.703	85.298	17.71332	9.37687	8.02319	18.50541	0.48824	-0.87013	19.85926	708.77002	24
19.395	85.932	16.90811	8.61758	7.37718	19.14028	-1.06781	-1.18688	19.93636	708.98401	24
19.53	81.9	16.77192	9.29525	6.57016	19.01488	-1.19335	-1.14984	19.8632	708.888	24
16.861	80.654	17.70077	10.10734	7.31979	18.46145	0.40011	-0.81115	19.87411	708.84802	24
14.204	78.932	18.40925	10.80676	7.92694	17.67173	2.03951	-0.45965	19.874	708.91998	24
11.565	76.411	18.86533	11.19283	8.3218	16.61036	3.5847	-0.28036	19.72365	708.86603	24.1
9.825	73.975	19.17908	11.52134	8.66618	15.98403	4.81811	-0.01662	19.76797	708.83398	24.1
8.11	70.493	19.41906	11.79334	9.0119	15.17831	6.09844	0.06958	19.80787	708.84198	24.1
6.441	65.171	19.63087	11.99713	9.21892	14.3547	7.3108	0.21475	19.88672	708.79999	24
4.866	56.268	19.63556	12.13815	9.37396	13.38324	8.34404	0.20147	19.74471	708.96399	24
3.818	44.968	19.62369	12.12212	9.42879	12.64688	9.28104	0.376	19.77831	709.00403	24.1
3.018	26.546	19.65907	12.20595	9.60183	11.985	10.13022	0.48509	19.83706	708.88397	24.1
2.737	9.455	19.70333	12.22374	9.61176	11.39199	10.55554	0.35588	19.7922	708.80402	24.1
2.7	0	19.63292	12.177	9.50073	11.08332	10.79244	0.38098	19.76916	708.93402	24.1
2.737	-9.455	19.63219	12.1853	9.54067	10.85671	11.08736	0.38281	19.76595	708.77802	24.1
3.018	-26.546	19.69616	12.17394	9.58849	10.33869	11.64971	0.39233	19.84527	708.88	24.1
3.818	-44.968	19.63141	12.13959	9.43464	9.49222	12.26586	0.28248	19.78086	708.89203	24.1
4.866	-56.268	19.65212	12.08247	9.42452	8.72173	13.11217	0.29601	19.81912	708.79401	24.1
6.441	-65.171	19.58752	11.99054	9.34082	7.61498	14.07666	0.17635	19.82254	708.672	24.1
8.11	-70.493	19.45216	11.79578	9.11182	6.42582	14.91336	0.04463	19.82566	708.72998	24.1
9.825	-73.975	19.221	11.54671	8.87123	5.27595	15.71264	-0.12997	19.84236	708.75201	24.1
11.565	-76.411	18.91305	11.25727	8.56908	4.05259	16.41608	-0.36384	19.82202	708.79797	24.1
14.204	-78.932	18.31735	10.73219	8.02019	2.31493	17.31963	-0.65702	19.80367	708.83398	24.1
16.861	-80.654	17.55269	10.12097	7.41144	0.62661	18.15634	-1.10302	19.74802	708.79401	24.1
19.53	-81.9	16.6466	9.27811	6.60433	-1.10761	18.85234	-1.3948	19.84812	708.74402	24.1
19.753	-77.938	16.51732	9.96026	5.81408	-1.13477	18.70313	-1.38388	19.75093	708.75201	24.1
17.122	-76.12	17.48312	10.83083	6.61311	0.56137	18.13421	-1.07487	19.78776	708.69397	24.1
14.515	-73.632	18.26867	11.45838	7.22809	2.28805	17.36957	-0.62522	19.85246	708.76001	24.1
11.948	-70.053	18.83626	11.95115	7.74302	4.02919	16.35823	-0.35403	19.79588	708.73798	24.1
10.274	-66.672	19.09475	12.28862	8.06863	5.20276	15.61932	-0.17563	19.76705	708.68799	24.1
8.65	-61.993	19.37693	12.57473	8.37081	6.39458	14.78406	-0.04571	19.77196	708.862	24.1
7.111	-55.213	19.53638	12.71184	8.49306	7.556	13.98999	0.12186	19.80436	708.95001	24.1
5.725	-44.928	19.56052	12.81591	8.58491	8.67008	13.06095	0.18657	19.77213	708.83801	24.1
4.866	-33.636	19.67556	12.92154	8.69755	9.57705	12.33514	0.33341	19.84254	708.81201	24.1
4.269	-18.405	19.73708	13.01416	8.81643	10.30069	11.64985	0.39414	19.96622	708.87201	24.1
4.075	-6.33	19.63692	12.97839	8.69924	10.8071	11.11033	0.31257	19.91133	708.89398	24.1
4.05	0	19.6869	12.94544	8.72271	11.07212	10.80131	0.37032	19.77851	708.79797	24.1
4.075	6.33	19.68388	13.00737	8.77241	11.40119	10.54533	0.42274	19.88179	708.87598	24.1
4.269	18.405	19.64293	12.93332	8.72621	11.86018	9.97266	0.3835	19.8182	708.87	24.1
4.866	33.636	19.64607	12.93682	8.71685	12.64438	9.16426	0.3364	19.86018	708.89001	24.1
5.725	44.928	19.62094	12.8466	8.68116	13.38889	8.34061	0.31719	19.84185	708.85602	24.1
7.111	55.213	19.52593	12.70628	8.33921	14.22427	7.26639	0.20041	19.82562	708.80402	24.1
8.65	61.993	19.41863	12.55991	8.19078	15.13007	6.03838	0.10237	19.84567	708.84998	24.1
10.274	66.672	19.20479	12.31392	7.9225	15.90912	4.8551	-0.05568	19.85353	708.83002	24.1
11.948	70.053	18.84884	11.99749	7.60737	16.6345	3.67859	-0.20159	19.79154	708.87598	24.1
14.515	73.632	18.30516	11.45485	7.11741	17.53479	2.00485	-0.50737	19.82757	708.88599	24.1
17.122	76.12	17.59726	10.78882	6.53778	18.3319	0.39188	-0.7992	19.83727	708.92798	24.2
19.753	77.938	16.63399	9.91239	5.72155	18.81972	-1.42488	-1.27201	19.70543	708.896	24.2
20.182	72.817	16.53737	10.89168	4.81631	18.72044	-1.35946	-1.26799	19.82016	708.97198	24.2
17.62	70.324	17.38125	11.67296	5.48694	18.10028	0.26002	-0.92493	19.73852	708.93799	24.2
15.104	66.974	18.12093	12.37762	6.0372	17.35018	1.79802	-0.65347	19.77417	709.078	24.2
12.663	62.292	18.72849	12.94116	6.51362	16.48234	3.53334	-0.30478	19.84431	708.86401	24.2
11.1	58.034	19.1174	13.29064	6.88838	15.81169	4.79244	-0.1528	19.9225	708.91998	24.2
9.62	52.416	19.27977	13.48496	7.07917	14.91121	5.91122	-0.08407	19.83489	709.03802	24.2
8.266	44.85	19.4088	13.66943	7.28312	14.03807	7.1276	0.01551	19.83615	708.89203	24.2
7.111	34.58	19.56056	13.82806	7.48998	13.21855	8.13305	0.19871	19.8604	708.85602	24.2
6.441	24.691	19.60367	13.88151	7.54742	12.49258	8.97585	0.18268	19.8514	708.73798	24.2
6.003	12.95	19.56326	13.89535	7.53887	11.66552	9.82282	0.16984	19.82338	708.966	24.2
5.867	4.383	19.609	13.91322	7.58471	11.13895	10.32201	0.20413	19.80535	708.90997	24.2
5.85	0	19.5938	13.90987	7.59811	10.89199	10.63868	0.26752	19.82344	708.99799	24.2
5.867	-4.383	19.60565	13.9163	7.60736	10.62744	10.92371	0.23355	19.8616	709.04199	24.2
6.003	-12.95	19.53684	13.84425	7.56092	10.05635	11.38596	0.19895	19.75886	708.966	24.2
6.441	-24.691	19.56963	13.79996	7.56207	9.2225	12.14488	0.15928	19.76236	708.966	24.2
7.111	-34.58	19.5269	13.77784	7.60798	8.42599	12.94438	0.11109	19.84187	709.20203	24.2
8.266	-44.85	19.42717	13.61377	7.44984	7.42794	13.81536	0.02844	19.83521	709.01801	24.2
9.62	-52.416	19.20922	13.41943	7.18342	6.23462	14.6384	-0.108	19.78832	708.94	24.2
11.1	-58.034	19.01031	13.22875	6.96963	5.1243	15.50776	-0.20124	19.81439	709.00598	24.2
12.663	-62.292	18.7036	12.92144	6.65739	3.95066	16.23281	-0.41822	19.86422	708.98999	24.2
15.104	-66.974	18.03325	12.3038	6.07289	2.11834	17.10798	-0.85742	19.71406	708.97198	24.2
17.62	-70.324	17.33021	11.64349	5.48941	0.47449	17.99369	-1.06947	19.80885	708.88202	24.2
20.182	-72.817	16.43805	10.91308	4.75304	-1.25527	18.70014	-1.38589	19.84228	708.97998	24.2
20.753	-67.933	16.13379	11.73137	3.66137	-1.43343	18.47774	-1.51792	19.80894	708.84601	24.2
18.278	-64.884	17.15481	12.56503	4.3894	0.27657	17.85068	-1.20277	19.8554	708.90198	24.2
15.873	-60.875	17.90117	13.21826	5.02363	2.00673	16.9176	-0.87879	19.71912	708.96399	24.2
13.577	-55.453	18.55241	13.80042	5.51768	3.75598	16.01842	-0.55566	19.83976	708.92401	24.2
12.136	-50.714	18.86075	14.11761	5.7973	4.90072	15.31639	-0.37134	19.87077	708.93597	24.2
10.803	-44.744	19.09851	14.29137	6.09416	6.04374	14.45164	-0.29546	19.75776	708.80798	24.2
9.62	-37.193	19.25811	14.47864	6.28388	7.15154	13.60997	-0.12667	19.78868	709.10999	24.2
8.65	-27.736	19.34182	14.63623	6.3705	8.20075	12.70462	-0.0563	19.7806	709.01398	24.2
8.11	-19.326	19.42757	14.7155	6.40056	9.00622	12.05098	-0.04039	19.84427	708.90399	24.2
7.768	-9.949	19.47169	14.73337	6.40474	9.81017	11.18501	0.05589	19.79719	708.88	24.2
7.663	-3.346	19.47116	14.79461	6.41684	10.43308	10.72454	0.11732	19.83272	708.95801	24.2
7.65	0	19.50198	14.78444	6.42304	10.66128	10.42981	0.08721	19.82094	708.87	24.2
7.663	3.346	19.54204	14.85609	6.4193	10.9712	10.19168	0.09148	19.86481	709.09601	24.3
7.768	9.949	19.45705	14.76549	6.38205	11.47477	9.63638	0.10972	19.82303	708.92401	24.3
8.11	19.326	19.4104	14.7104	6.36443	12.22366	8.81565	0.0762	19.82783	708.92401	24.3
8.65	27.736	19.42332	14.6995	6.36109	12.95662	7.98939	0.09513	19.85988	709.02002	24.3
9.62	37.193	19.32485	14.56988	6.25977	13.90054	7.02409	-0.00944	19.88588	708.92603	24.3
10.803	44.744	19.04255	14.27472	5.9139	14.59692	5.69433	-0.3138	19.71547	708.98401	24.3
12.136	50.714	18.80589	14.08857	5.70615	15.48221	4.53476	-0.42987	19.75343	708.93402	24.3
13.577	55.453	18.50803	13.80938	5.45183	16.1674	3.33626	-0.60324	19.73494	709.00403	24.3
15.873	60.875	17.96798	13.30653	5.00632	17.18079	1.76348	-0.6851	19.83498	708.82397	24.3
18.278	64.884	17.23222	12.57574	4.43746	17.8734	0.15189	-1.05242	19.8219	708.92999	24.3
20.753	67.933	16.29639	11.73245	3.723	18.53915	-1.4855	-1.36074	19.79623	708.92401	24.3
21.455	63.328	16.01295	12.5393	2.65375	18.25708	-1.68095	-1.63097	19.78696	708.90399	24.3
19.079	59.847	16.97943	13.41093	3.3416	17.61207	-0.03988	-1.26837	19.81641	708.98401	24.3
16.797	55.378	17.73331	14.12979	3.8584	16.88761	1.51878	-0.90846	19.83028	708.90997	24.3
14.653	49.53	18.26604	14.65596	4.30456	15.84772	3.23881	-0.73509	19.8385	708.92401	24.3
13.334	44.609	18.49395	14.89831	4.51518	15.15104	4.34512	-0.60375	19.72279	709.09601	24.3
12.136	38.652	18.81017	15.14388	4.82057	14.40358	5.54773	-0.36936	19.76841	708.92401	24.3
11.1	31.482	19.0118	15.39013	5.04075	13.62314	6.67202	-0.29798	19.85414	708.98199	24.3
10.274	22.993	19.18656	15.49227	5.14119	12.70237	7.83083	-0.09097	19.89349	709.10199	24.3
9.825	15.802	19.22164	15.59532	5.23503	11.96603	8.60474	-0.17396	19.84621	709.09601	24.3
9.545	8.056	19.35429	15.66593	5.36793	11.29156	9.56189	0.02718	19.94857	708.98401	24.3
9.461	2.702	19.26624	15.56906	5.20725	10.60806	9.91207	-0.13501	19.80669	709.03601	24.3
9.45	0	19.29953	15.5789	5.23411	10.38688	10.20808	-0.09416	19.83284	709.034	24.3
9.461	-2.702	19.30967	15.61579	5.23787	10.17053	10.49001	-0.08058	19.81156	708.96399	24.3
9.545	-8.056	19.29096	15.57499	5.25655	9.65542	11.01729	-0.15795	19.76865	709.034	24.3
9.825	-15.802	19.21283	15.49271	5.23471	8.83956	11.72141	-0.20722	19.70741	708.97601	24.3
10.274	-22.993	19.16232	15.46264	5.20087	7.99011	12.42169	-0.35169	19.74196	709.06799	24.3
11.1	-31.482	19.03116	15.31188	5.07192	6.98489	13.38569	-0.3194	19.81873	708.83002	24.3
12.136	-38.652	18.8667	15.13961	4.93256	5.82807	14.2093	-0.39337	19.8201	709.00403	24.3
13.334	-44.609	18.54659	14.901	4.62596	4.70226	15.13172	-0.54669	19.92984	708.966	24.3
14.653	-49.53	18.20493	14.56403	4.32989	3.5283	15.73816	-0.71506	19.75007	709.03601	24.3
16.797	-55.378	17.62728	14.01329	3.88421	1.87431	16.74395	-0.98052	19.77005	708.93597	24.3
19.079	-59.847	16.80133	13.30796	3.20034	0.08584	17.49733	-1.37456	19.72667	708.94397	24.3
21.455	-63.328	15.89306	12.53054	2.51711	-1.57676	18.25948	-1.60021	19.7971	708.98798	24.3
20.005	-55.231	16.48118	14.13423	2.13512	-0.10782	17.24904	-1.54421	19.74966	708.99597	24.3
17.851	-50.474	17.33219	14.83391	2.77881	1.68694	16.51071	-1.06786	19.85346	708.91803	24.3
15.858	-44.444	17.94304	15.36372	3.20607	3.37367	15.42048	-0.83604	19.76385	709.09003	24.4
14.653	-39.537	18.27626	15.63706	3.50082	4.45801	14.77117	-0.72522	19.8353	709.13599	24.3
13.577	-33.792	18.56612	15.82997	3.72331	5.58562	13.94738	-0.6015	19.77412	709.00598	24.4
12.663	-27.131	18.74453	16.07411	3.90863	6.64042	13.04522	-0.57016	19.77283	708.95203	24.3
11.948	-19.548	18.88637	16.21583	3.94105	7.75801	12.1877	-0.41683	19.8474	709.00201	24.4
11.565	-13.323	18.91805	16.20675	4.01074	8.52798	11.46497	-0.33908	19.78306	709.04199	24.3
11.33	-6.755	19.01414	16.31582	4.0477	9.33609	10.68995	-0.32612	19.83489	709.12	24.4
11.259	-2.261	19.064	16.37217	4.06854	9.83374	10.23261	-0.32828	19.85976	709.06201	24.3
11.25	0	19.08733	16.38678	4.08419	10.14526	9.95146	-0.26959	19.86607	709.15399	24.4
11.259	2.261	18.99729	16.34768	4.10365	10.40654	9.68189	-0.32368	19.79154	709.00598	24.4
11.33	6.755	19.01877	16.35869	4.04599	10.92165	9.12237	-0.245	19.80314	709.172	24.4
11.565	13.323	18.98031	16.31013	4.04467	11.61184	8.36259	-0.30034	19.78735	708.88599	24.4
11.948	19.548	18.94671	16.2762	3.98067	12.38929	7.5898	-0.31837	19.81014	709.03802	24.4
12.663	27.131	18.70157	16.05275	3.85113	13.18835	6.42357	-0.4648	19.71926	709.09198	24.4
13.577	33.792	18.54029	15.93195	3.75174	14.08098	5.4538	-0.54528	19.83886	708.92401	24.4
14.653	39.537	18.27506	15.67831	3.54041	14.81058	4.33055	-0.73009	19.78858	709.026	24.4
15.858	44.444	18.0121	15.50197	3.18596	15.64869	3.09239	-0.79547	19.93752	709.02802	24.4
17.851	50.474	17.32507	14.80306	2.68317	16.47553	1.2936	-1.15867	19.73964	709.034	24.4
20.005	55.231	16.5878	14.09963	2.24711	17.26817	-0.25605	-1.47013	19.74146	709.06	24.4
21.594	49.076	15.99469	15.115	0.55163	16.60941	-0.7217	-1.72238	19.73565	709.25	24.4
19.63	44.142	16.81308	15.8991	1.13862	15.90949	1.13362	-1.36804	19.83666	709.11798	24.4
17.851	38.146	17.36929	16.41726	1.55294	14.90397	2.79965	-1.1045	19.83148	709.20801	24.4
16.797	33.464	17.80593	16.81724	1.85331	14.32906	3.90572	-0.99736	19.88408	709.12201	24.4
15.873	28.187	17.95241	16.92943	1.93643	13.43454	4.92095	-0.88455	19.82909	709.22198	24.4
15.104	22.309	18.20347	17.09295	2.13933	12.61183	6.00954	-0.76658	19.7796	709.18402	24.4
14.515	15.872	18.31767	17.25145	2.27582	11.76175	7.07791	-0.66453	19.81853	709.16602	24.4
14.204	10.738	18.4335	17.30243	2.32976	11.08308	7.85885	-0.59081	19.76667	707.914	24.4
14.014	5.418	18.45881	17.30404	2.37216	10.33547	8.68493	-0.62586	19.78907	708.97198	24.4
13.957	1.811	18.46301	17.34705	2.35144	9.85802	9.17402	-0.66594	19.81132	709.15198	24.4
13.95	0	18.4777	17.34343	2.34904	9.61873	9.43178	-0.67657	19.82599	708.896	24.4
13.957	-1.811	18.45425	17.33549	2.38115	9.36818	9.6351	-0.69966	19.73533	709.04199	24.4
14.014	-5.418	18.45276	17.32708	2.34372	8.87155	10.19462	-0.7203	19.79415	709.138	24.4
14.204	-10.738	18.49065	17.31983	2.22608	8.03513	10.90376	-0.70351	19.90478	707.58398	24.4
14.515	-15.872	18.35518	17.2493	2.26611	7.32398	11.59729	-0.78182	19.81561	708.15002	24.4
15.104	-22.309	18.17494	17.07839	2.11052	6.17365	12.41984	-0.88353	19.81472	709.20001	24.4
15.873	-28.187	17.91593	16.863	1.92561	5.16518	13.30555	-0.98084	19.75355	708.43799	24.4
16.797	-33.464	17.66907	16.64887	1.75109	4.06431	14.0456	-1.05015	19.76118	707.22998	24.4
17.851	-38.146	17.32443	16.35716	1.40675	2.91324	14.78061	-1.15666	19.83269	709.14001	24.4
19.63	-44.142	16.65965	15.79182	0.97922	1.27307	15.81868	-1.38689	19.83484	709.19598	24.4
21.594	-49.076	15.81413	15.08803	0.34081	-0.4984	16.57832	-1.79858	19.72579	709.17603	24.4
21.594	-38.872	15.89747	16.65292	-0.78304	0.74564	15.12501	-1.68656	19.86844	708.48199	24.4
20.005	-33.118	16.57474	17.17529	-0.25289	2.4721	14.1558	-1.39121	19.80864	708.43402	24.4
19.079	-28.767	16.8638	17.49156	-0.02942	3.54823	13.31203	-1.42257	19.75162	707.03998	24.4
18.278	-23.995	17.22445	17.69922	0.15073	4.62443	12.55387	-1.23333	19.80217	708.15002	24.4
17.62	-18.82	17.42972	17.91413	0.37526	5.79413	11.78454	-1.1736	19.8483	709.29797	24.5
17.122	-13.288	17.59483	17.99165	0.45598	6.74737	10.89833	-1.14206	19.80918	709.28198	24.4
16.861	-8.951	17.62666	18.06806	0.54499	7.53707	10.22334	-1.14397	19.77081	709.216	24.5
16.703	-4.504	17.70745	18.1169	0.60916	8.31374	9.54035	-1.10439	19.76975	707.24402	24.5
16.656	-1.504	17.70938	18.14218	0.63874	8.73369	9.01159	-1.08012	19.82421	709.35199	24.5
16.65	0	17.74947	18.13779	0.6416	8.96375	8.7992	-1.04938	19.76409	707.20001	24.5
16.656	1.504	17.70649	18.13965	0.65094	9.2329	8.56723	-1.029	19.74018	709.35999	24.5
16.703	4.504	17.70748	18.16867	0.6233	9.69409	8.04354	-1.04171	19.80169	707.396	24.5
16.861	8.951	17.70077	18.17673	0.62422	10.45259	7.35657	-0.93824	19.8873	709.24799	24.5
17.122	13.288	17.62535	18.05943	0.57917	11.08261	6.56273	-0.97667	19.76264	707.23798	24.5
17.62	18.82	17.48724	17.97127	0.42052	11.90925	5.504	-1.0709	19.79769	707.63	24.5
18.278	23.995	17.1942	17.74804	0.28229	12.73139	4.48579	-1.20394	19.72289	707.11798	24.5
19.079	28.767	16.95769	17.57187	0.1059	13.46219	3.38658	-1.33031	19.76439	707.146	24.5
20.005	33.118	16.62856	17.30264	-0.11187	14.14174	2.29013	-1.43877	19.82012	707.18402	24.5
21.594	38.872	16.01834	16.74323	-0.58894	15.07914	0.57039	-1.62601	19.7578	707.20599	24.5
21.455	25.058	16.06444	18.25611	-1.65087	12.53999	2.70209	-1.66656	19.75484	707.22803	24.5
20.753	20.76	16.28014	18.42338	-1.44279	11.74438	3.77663	-1.66498	19.72243	707.16602	24.5
20.182	16.185	16.50153	18.55879	-1.3286	10.96625	4.82491	-1.48389	19.70296	707.20599	24.5
19.753	11.371	16.71244	18.75349	-1.09807	10.21284	5.92807	-1.37451	19.86579	707.12	24.5
19.53	7.64	16.76864	18.75207	-1.08544	9.53333	6.60485	-1.42208	19.69981	708.57599	24.5
19.395	3.838	16.85073	18.80118	-0.9923	8.95122	7.33764	-1.41845	19.77343	707.20398	24.5
19.355	1.281	16.80909	18.74482	-1.06869	8.43893	7.76877	-1.43295	19.69662	707.10999	24.5
19.35	0	16.81297	18.77075	-1.05448	8.24494	7.98636	-1.46497	19.70128	707.24402	24.5
19.355	-1.281	16.81721	18.77054	-1.08218	8.02267	8.25354	-1.49805	19.75605	707.18201	24.5
19.395	-3.838	16.78076	18.71511	-1.12438	7.50932	8.67449	-1.5991	19.68613	709.27002	24.5
19.53	-7.64	16.71247	18.66377	-1.1919	6.74196	9.29514	-1.66681	19.66447	709.01001	24.5
19.753	-11.371	16.75003	18.72699	-1.14165	6.12238	10.12081	-1.64415	19.85964	707.98401	24.5
20.182	-16.185	16.52792	18.56477	-1.37832	5.08911	10.92956	-1.66913	19.81325	707.21198	24.5
20.753	-20.76	16.26283	18.37993	-1.60764	3.99909	11.71287	-1.60923	19.82232	707.22803	24.5
21.455	-25.058	15.9682	18.16575	-1.75931	2.99127	12.50763	-1.70331	19.84251	707.93597	24.5
22.05	0	15.80245	19.27026	-2.70461	7.4124	7.23156	-1.81763	19.87212	709.33801	24.5
21.028	171.829	15.92348	-2.53663	18.91641	9.30521	5.83448	-1.5357	19.70579	709.27002	24.5
21.028	-171.829	15.85918	-2.48763	19.01424	6.17139	8.89262	-1.51259	19.63385	707.16602	24.5
21.2	155.725	15.84507	-2.10391	17.97757	12.4263	2.88975	-1.56169	19.61762	707.22198	24.5
21.2	-155.725	15.74721	-2.10771	18.37459	3.17851	11.95257	-1.73175	19.72031	707.25598	24.5
18.006	175.263	17.05395	-0.65337	18.5258	9.46717	7.44997	-0.9752	19.66553	707.29199	24.5
18.049	-165.833	17.01915	-0.54199	18.42964	6.31487	10.62907	-1.10964	19.7014	707.21002	24.5
18.119	156.496	17.02431	-0.26606	17.6614	12.61137	4.51717	-1.08933	19.6485	707.37402	24.5
21.342	139.958	15.84412	-0.94408	16.28624	15.24105	0.56245	-1.58249	19.70483	707.21802	24.5
21.342	-139.958	15.70224	-0.83464	16.72981	0.71944	14.84093	-1.4816	19.69005	707.37201	24.5
18.186	-147.249	16.91556	0.35678	17.1963	3.44006	13.69251	-1.15839	19.70861	707.362	24.6
15	180	17.85087	1.11431	17.78182	9.32558	8.88173	-0.68099	19.59612	707.34601	24.5
18.219	138.046	17.0977	1.20526	15.88139	15.50946	2.1958	-1.01497	19.76331	707.37201	24.5
12.004	-173.08	18.62995	3.03284	16.80678	9.12106	10.36582	-0.38224	19.66476	707.25201	24.6
21.29	124.033	15.8533	1.10917	13.81631	17.41288	-1.05353	-1.41415	19.67772	707.34601	24.6
21.29	-124.033	15.79356	1.25459	14.24945	-0.8771	17.07344	-1.53085	19.75209	707.37402	24.6
18.206	-128.781	17.00587	2.31816	15.04834	1.49716	16.25684	-1.07077	19.77794	707.30798	24.6
12.028	159.285	18.68116	3.40132	16.40473	12.52491	7.2846	-0.28712	19.72546	707.26001	24.6
15.126	135.505	17.94688	3.16593	15.17626	15.44582	3.51357	-0.64578	19.65756	707.26599	24.6
15.126	-135.505	17.91339	3.23279	15.58582	3.81644	15.05755	-0.61634	19.73324	707.23602	24.6
12.058	-145.578	18.66126	4.11676	15.81498	6.32541	13.58263	-0.29616	19.75847	707.35797	24.6
18.154	119.37	17.05545	3.45684	13.20866	17.49366	0.56633	-0.92905	19.65409	707.388	24.6
9.009	162.015	19.24537	5.23637	15.47881	12.19842	8.54846	0.07984	19.75198	707.31403	24.6
9.009	-162.015	19.19445	5.26059	15.54972	8.89556	11.78371	0.08548	19.75808	707.396	24.6
12.064	131.892	18.6782	5.1063	14.4516	15.24769	4.87657	-0.20257	19.69362	707.31598	24.6
21.103	107.375	16.07164	3.96251	10.80196	18.88903	-1.89095	-1.31686	19.78061	707.27802	24.6
21.103	-107.375	15.88557	4.07232	11.05867	-1.8506	18.51089	-1.58197	19.77768	707.38397	24.6
18.083	-109.756	17.09279	5.00893	11.96135	0.25286	17.90263	-1.04872	19.77998	707.33801	24.6
12.046	-118.107	18.64935	6.46893	13.32362	4.39953	15.83867	-0.21763	19.73581	707.37598	24.6
9.025	126.214	19.15602	6.99109	13.44112	14.76822	6.20517	0.05086	19.63627	707.38599	24.6
9.025	-126.214	19.14076	6.99749	13.60529	6.52883	14.34259	0.0263	19.64605	707.42401	24.6
6.008	-141.482	19.42082	7.6649	13.59785	8.65889	12.70202	0.27698	19.66083	707.35602	24.6
18.024	99.943	17.13766	6.467	9.99351	18.56938	-0.20822	-1.01037	19.68754	707.58398	24.6
3	180	19.56773	8.8122	12.81173	11.07804	10.7479	0.45349	19.72409	707.47998	24.6
12.013	104.13	18.64127	7.79114	11.36429	16.66464	3.52387	-0.28821	19.59597	707.38202	24.6
6.005	115.803	19.42182	8.75806	12.27752	14.03042	7.50939	0.31792	19.66322	707.48798	24.6
21	-90	15.99364	7.33088	7.62436	-2.07878	19.08226	-1.43592	19.77006	707.31598	24.6
18	-90	17.08871	8.27565	8.51312	-0.12634	18.4773	-1.07445	19.68123	707.38202	24.6
15	-90	18.10567	9.03442	9.42734	1.81133	17.80102	-0.64793	19.83058	707.44	24.6
12	-90	18.70275	9.59387	10.00712	3.65829	16.66736	-0.32502	19.71027	707.396	24.6
9	-90	19.14746	9.99888	10.47902	5.56349	15.40149	-0.06357	19.65413	707.43201	24.6
6	-90	19.4623	10.32967	10.88703	7.49093	14.07911	0.27859	19.71231	707.48199	24.6
3	-90	19.61271	10.53176	11.08477	9.37874	12.5193	0.42672	19.74986	707.27197	24.7
3	90	19.52815	10.53567	11.00907	12.81901	9.03899	0.43371	19.68879	707.42401	24.7
9	90	19.20527	10.01315	10.34186	15.8045	5.30882	0.06415	19.72882	707.51801	24.7
15	90	18.07968	9.01001	9.21148	17.94217	1.66244	-0.55846	19.75286	707.47198	24.7
21	90	16.07809	7.24974	7.44213	19.19365	-2.15506	-1.44864	19.7444	707.474	24.7
6.005	64.197	19.51727	11.94349	9.2704	14.08606	7.57899	0.3353	19.73626	707.67798	24.7
12.013	75.87	18.69769	11.19303	8.12786	16.73299	3.33999	-0.26489	19.675	707.54602	24.7
3	0	19.60159	12.37105	9.35276	11.11705	10.82724	0.45648	19.77325	707.54199	24.7
18.024	80.057	17.18818	9.88947	6.7801	18.53051	-0.25761	-0.92695	19.70051	707.54401	24.7
6.008	-38.518	19.46795	13.10547	8.25476	8.65102	12.75097	0.21907	19.64878	707.50201	24.7
9.025	-53.786	19.24778	13.18069	7.58833	6.55678	14.50368	0.01432	19.74152	707.61401	24.7
9.025	53.786	19.19885	13.15899	7.3258	14.7072	6.0676	-0.07114	19.66845	707.56403	24.7
12.046	-61.893	18.80006	12.88877	6.84876	4.28943	15.94384	-0.35606	19.72572	707.49597	24.7
18.083	-70.244	17.12706	11.63699	5.27386	0.21371	18.04408	-1.08452	19.68328	707.59198	24.7
21.103	72.625	16.06207	10.69027	4.30389	18.72304	-1.98602	-1.36558	19.62141	707.41803	24.7
21.103	-72.625	16.04565	10.80664	4.34513	-1.77684	18.8384	-1.3959	19.77934	707.54401	24.7
12.064	48.108	18.79589	14.30668	5.50878	15.23471	4.71331	-0.32489	19.70469	707.68799	24.7
9.009	-17.985	19.19462	15.00198	5.69028	8.78155	11.72971	-0.14054	19.60886	707.67798	24.7
9.009	17.985	19.2579	15.11458	5.77535	12.11853	8.62073	0.03645	19.73674	707.66803	24.7
18.154	60.63	17.20366	13.24298	3.87266	17.43397	0.38087	-1.04549	19.68111	707.70801	24.7
12.058	-34.422	18.77395	15.3472	4.63112	6.23408	13.72905	-0.36584	19.68778	707.638	24.7
15.126	-44.495	18.05785	15.21016	3.62815	3.75625	15.27437	-0.67348	19.72759	707.62799	24.7
15.126	44.495	18.05709	15.26735	3.48397	15.36469	3.33564	-0.72362	19.66684	707.59802	24.8
12.028	20.715	18.73181	16.14373	4.02656	12.36359	7.3715	-0.24835	19.66771	707.604	24.8
18.206	-51.219	17.14895	14.72364	2.59106	1.40494	16.52953	-1.1093	19.7188	707.58398	24.7
21.29	-55.967	15.87955	13.88117	1.44672	-0.96842	17.33817	-1.69846	19.64671	707.646	24.8
21.29	55.967	16.06363	13.91216	1.6535	17.41306	-1.13034	-1.56875	19.68444	707.60199	24.8
12.004	-6.92	18.82219	16.46906	3.61393	9.14241	10.60812	-0.42702	19.71135	707.59802	24.8
18.219	41.954	17.2067	15.96668	1.62823	15.43651	2.16128	-1.2185	19.69353	707.61603	24.8
15	0	18.08497	17.57514	1.66353	9.36622	9.06795	-0.60847	19.5932	707.75	24.8
18.186	-32.751	17.06355	16.85167	0.77091	3.38953	13.82558	-1.13827	19.59711	707.59802	24.8
21.342	-40.042	15.93954	16.44131	-0.51673	0.73241	15.18375	-1.59057	19.59946	707.53601	24.8
21.342	40.042	15.97575	16.51784	-0.30801	15.1542	0.63218	-1.51273	19.66832	707.60602	24.8
18.119	23.504	17.24173	17.74735	0.34389	12.64194	4.51183	-1.08568	19.62692	707.65198	24.8
18.049	-14.167	17.26842	18.19212	-0.05975	6.29065	10.88087	-1.23485	19.74678	707.64001	24.8
18.006	4.737	17.23156	18.40219	-0.1147	9.40387	7.57048	-1.13168	19.73827	707.49597	24.8
21.2	-24.275	15.9578	18.09453	-1.69958	3.15245	12.22685	-1.65847	19.59207	707.64801	24.8
21.2	24.275	16.09338	18.29382	-1.54225	12.43847	3.00189	-1.61252	19.74395	707.63202	24.8
21.028	-8.171	16.08503	18.91388	-2.08277	6.16952	9.05225	-1.75629	19.65804	707.63599	24.8
21.028	8.171	16.12253	18.96287	-1.9899	9.25111	5.91013	-1.52238	19.64235	707.79999	24.8
